# Columns: 2theta[deg]  Intensity[counts]  ESD[counts]
13.374211 33223.281 182.273
13.391239 31478.693 177.422
13.408268 29451.285 171.614
13.425296 29313.146 171.211
13.442326 27994.650 167.316
13.459355 27649.234 166.281
13.476385 27352.424 165.386
13.493415 27048.783 164.465
13.510445 26953.830 164.176
13.527476 26907.125 164.034
13.544507 26858.291 163.885
13.561538 26863.576 163.901
13.578570 26833.291 163.809
13.595601 26804.895 163.722
13.612634 26816.158 163.756
13.629666 26844.734 163.844
13.646699 26818.951 163.765
13.663732 26815.518 163.754
13.680765 26783.361 163.656
13.697799 26807.498 163.730
13.714833 26850.467 163.861
13.731867 26864.102 163.903
13.748902 26847.076 163.851
13.765937 26843.168 163.839
13.782972 26839.070 163.826
13.800007 26845.018 163.844
13.817043 26847.551 163.852
13.834079 26820.955 163.771
13.851116 26852.631 163.868
13.868152 26875.658 163.938
13.885189 26886.371 163.971
13.902227 26869.920 163.920
13.919264 26870.580 163.922
13.936302 26889.535 163.980
13.953340 26878.908 163.948
13.970379 27581.133 166.076
13.987418 29034.271 170.394
14.004457 29912.721 172.953
14.021497 30927.465 175.862
14.038536 31351.754 177.064
14.055577 31454.449 177.354
14.072617 31497.771 177.476
14.089658 31505.529 177.498
14.106699 31488.266 177.449
14.123740 31458.041 177.364
14.140782 31490.643 177.456
14.157824 31540.053 177.595
14.174866 31505.887 177.499
14.191909 31498.947 177.479
14.208952 31477.502 177.419
14.225995 31503.561 177.492
14.243039 31522.422 177.546
14.260083 31495.832 177.471
14.277127 31520.320 177.540
14.294171 31560.477 177.653
14.311216 31531.004 177.570
14.328261 31507.029 177.502
14.345307 31519.754 177.538
14.362353 31553.941 177.634
14.379399 31566.197 177.669
14.396445 31558.521 177.647
14.413492 31547.564 177.616
14.430539 31552.191 177.629
14.447587 31570.135 177.680
14.464634 31602.566 177.771
14.481682 31603.045 177.772
14.498731 31604.754 177.777
14.515780 31595.961 177.753
14.532829 31632.477 177.855
14.549878 31644.920 177.890
14.566928 31664.062 177.944
14.583978 31658.021 177.927
14.601028 31674.893 177.974
14.618079 31677.660 177.982
14.635130 31672.385 177.967
14.652181 31664.729 177.946
14.669232 31710.078 178.073
14.686284 31689.707 178.016
14.703337 31699.270 178.043
14.720389 31717.199 178.093
14.737442 31736.869 178.148
14.754495 31754.848 178.199
14.771549 31754.445 178.198
14.788603 31761.080 178.216
14.805657 31778.531 178.265
14.822712 31805.502 178.341
14.839767 31781.803 178.275
14.856822 31776.486 178.260
14.873878 31795.514 178.313
14.890933 31822.004 178.387
14.907990 31842.477 178.445
14.925046 31884.439 178.562
14.942103 31880.191 178.550
14.959160 31880.160 178.550
14.976218 31881.623 178.554
14.993276 31904.279 178.618
15.010334 31909.797 178.633
15.027393 31890.992 178.580
15.044452 31917.244 178.654
15.061511 31951.197 178.749
15.078570 31956.748 178.765
15.095630 31982.793 178.837
15.112690 31991.982 178.863
15.129751 32025.539 178.957
15.146812 32066.189 179.070
15.163873 32077.715 179.103
15.180935 32027.619 178.963
15.197997 32078.918 179.106
15.215059 32115.342 179.208
15.232122 32115.820 179.209
15.249185 32129.303 179.246
15.266248 32112.770 179.200
15.283312 32150.520 179.306
15.300376 32199.416 179.442
15.317440 32208.631 179.468
15.334504 32149.182 179.302
15.351569 32169.547 179.359
15.368635 32215.379 179.486
15.385701 32278.521 179.662
15.402767 32308.559 179.746
15.419833 32295.137 179.708
15.436900 32306.682 179.741
15.453967 32308.014 179.744
15.471034 32356.057 179.878
15.488102 32348.760 179.858
15.505170 32392.494 179.979
15.522238 32420.207 180.056
15.539307 32427.584 180.077
15.556376 32451.947 180.144
15.573446 32464.023 180.178
15.590516 32471.369 180.198
15.607586 32464.398 180.179
15.624656 32513.873 180.316
15.641727 32510.783 180.307
15.658798 32543.246 180.397
15.675870 32577.141 180.491
15.692942 32590.637 180.529
15.710014 32609.654 180.581
15.727087 32594.746 180.540
15.744160 32650.492 180.694
15.761233 32660.180 180.721
15.778307 32691.021 180.807
15.795381 32703.324 180.841
15.812455 32708.225 180.854
15.829530 32773.004 181.033
15.846605 32737.809 180.936
15.863681 32796.969 181.099
15.880756 32816.180 181.152
15.897833 32886.785 181.347
15.914909 32879.520 181.327
15.931986 32873.387 181.310
15.949063 32916.527 181.429
15.966141 32948.012 181.516
15.983219 32978.285 181.599
16.000297 33007.715 181.680
16.017376 33059.480 181.823
16.034455 33040.789 181.771
16.051534 33081.410 181.883
16.068614 33197.211 182.201
16.085694 33273.051 182.409
16.102774 33387.961 182.724
16.119855 33403.254 182.766
16.136936 33376.273 182.692
16.154018 33227.430 182.284
16.171100 33158.324 182.094
16.188182 33315.062 182.524
16.205265 33316.742 182.529
16.222347 33411.660 182.789
16.239431 33467.945 182.942
16.256515 33485.004 182.989
16.273599 33529.902 183.112
16.290683 33586.242 183.266
16.307768 33586.641 183.267
16.324853 33579.793 183.248
16.341939 33588.691 183.272
16.359024 33622.375 183.364
16.376111 33618.145 183.353
16.393197 33648.363 183.435
16.410284 33610.805 183.333
16.427372 33685.000 183.535
16.444459 33778.891 183.790
16.461547 33789.730 183.820
16.478636 33682.520 183.528
16.495725 33699.051 183.573
16.512814 33749.812 183.711
16.529904 33767.840 183.760
16.546993 33784.500 183.806
16.564084 33776.758 183.785
16.581174 33798.172 183.843
16.598266 33886.688 184.083
16.615357 33856.359 184.001
16.632449 33921.316 184.177
16.649541 33924.203 184.185
16.666633 33947.633 184.249
16.683726 33964.965 184.296
16.700820 33999.777 184.390
16.717913 34040.434 184.501
16.735007 34046.234 184.516
16.752102 34091.395 184.639
16.769197 34148.574 184.793
16.786292 34164.559 184.837
16.803387 34190.707 184.907
16.820483 34213.938 184.970
16.837580 34288.461 185.171
16.854676 34300.184 185.203
16.871773 34367.309 185.384
16.888871 34356.676 185.356
16.905969 34348.543 185.334
16.923067 34420.363 185.527
16.940165 34453.469 185.616
16.957264 34478.906 185.685
16.974364 34471.711 185.666
16.991463 34498.555 185.738
17.008563 34589.406 185.982
17.025664 34643.297 186.127
17.042765 34676.582 186.216
17.059866 34694.289 186.264
17.076968 34724.371 186.345
17.094070 34799.617 186.547
17.111172 34832.266 186.634
17.128275 34864.016 186.719
17.145378 34891.094 186.792
17.162481 34919.648 186.868
17.179585 34981.121 187.032
17.196690 35036.328 187.180
17.213794 35085.387 187.311
17.230899 35114.457 187.389
17.248005 35121.664 187.408
17.265111 35169.188 187.535
17.282217 35242.984 187.731
17.299324 35259.055 187.774
17.316431 35289.176 187.854
17.333538 35369.078 188.067
17.350646 35428.629 188.225
17.367754 35497.320 188.407
17.384863 35519.980 188.467
17.401972 35542.445 188.527
17.419081 35590.203 188.654
17.436191 35697.996 188.939
17.453301 35761.957 189.108
17.470411 35773.711 189.139
17.487522 35785.773 189.171
17.504634 35813.055 189.243
17.521745 35884.633 189.432
17.538858 35966.824 189.649
17.555970 35989.699 189.710
17.573083 36058.719 189.891
17.590196 36075.320 189.935
17.607310 36193.758 190.247
17.624424 36253.715 190.404
17.641538 36251.594 190.399
17.658653 36298.934 190.523
17.675769 36357.949 190.678
17.692884 36465.191 190.959
17.710000 36498.789 191.047
17.727117 36547.363 191.174
17.744234 36592.332 191.291
17.761351 36640.258 191.416
17.778469 36738.250 191.672
17.795587 36796.844 191.825
17.812705 36766.734 191.747
17.829824 36798.629 191.830
17.846943 36904.156 192.105
17.864063 37043.531 192.467
17.881183 37114.387 192.651
17.898304 37143.113 192.725
17.915424 37179.586 192.820
17.932546 37258.695 193.025
17.949667 37310.688 193.160
17.966789 37369.324 193.311
17.983912 37422.129 193.448
18.001035 37509.727 193.674
18.018158 37549.941 193.778
18.035282 37683.934 194.124
18.052406 37765.652 194.334
18.069530 37786.676 194.388
18.086655 37845.031 194.538
18.103781 37884.812 194.640
18.120906 37986.004 194.900
18.138033 38089.242 195.165
18.155159 38103.711 195.202
18.172286 38139.188 195.293
18.189414 38228.965 195.522
18.206541 38349.430 195.830
18.223670 38441.492 196.065
18.240798 38459.172 196.110
18.257927 38540.176 196.317
18.275057 38617.027 196.512
18.292186 38683.688 196.682
18.309317 38808.918 197.000
18.326447 38840.055 197.079
18.343578 38886.383 197.196
18.360710 38974.168 197.419
18.377842 39042.418 197.592
18.394974 39226.656 198.057
18.412107 39303.180 198.250
18.429240 39293.484 198.226
18.446374 39353.195 198.376
18.463508 39457.012 198.638
18.480642 39600.688 198.999
18.497777 39698.715 199.245
18.514912 39693.898 199.233
18.532048 39723.215 199.307
18.549184 39795.934 199.489
18.566320 39901.492 199.754
18.583457 40058.082 200.145
18.600595 40126.648 200.316
18.617732 40163.168 200.408
18.634870 40240.707 200.601
18.652009 40356.434 200.889
18.669148 40550.789 201.372
18.686287 40613.531 201.528
18.703427 40603.395 201.503
18.720568 40651.820 201.623
18.737708 40793.965 201.975
18.754849 40959.898 202.386
18.771991 41059.465 202.631
18.789133 41078.066 202.677
18.806275 41135.590 202.819
18.823418 41220.488 203.028
18.840561 41343.301 203.331
18.857705 41464.816 203.629
18.874849 41488.562 203.687
18.891994 41520.438 203.766
18.909139 41611.617 203.989
18.926284 41945.219 204.805
18.943430 42278.770 205.618
18.960576 42426.625 205.977
18.977723 42530.879 206.230
18.994870 42572.176 206.330
19.012017 42411.473 205.940
19.029165 42407.270 205.930
19.046314 42489.598 206.130
19.063462 42514.664 206.191
19.080612 42513.840 206.189
19.097761 42548.148 206.272
19.114911 42641.133 206.497
19.132062 42769.531 206.808
19.149213 42796.352 206.873
19.166364 42929.645 207.195
19.183516 43091.484 207.585
19.200668 43232.871 207.925
19.217821 43317.820 208.129
19.234974 43388.770 208.300
19.252128 43480.621 208.520
19.269282 43605.234 208.819
19.286436 43733.012 209.124
19.303591 43828.566 209.353
19.320746 43991.953 209.743
19.337902 44030.652 209.835
19.355058 44085.688 209.966
19.372215 44171.531 210.170
19.389372 44283.504 210.436
19.406530 44457.406 210.849
19.423687 44501.785 210.954
19.440846 44574.734 211.127
19.458005 44642.160 211.287
19.475164 44780.180 211.613
19.492324 44904.141 211.906
19.509484 45023.754 212.188
19.526644 45083.414 212.329
19.543805 45138.367 212.458
19.560967 45200.574 212.604
19.578129 45382.422 213.032
19.595291 45510.992 213.333
19.612454 45580.539 213.496
19.629617 45606.594 213.557
19.646781 45732.074 213.851
19.663945 45896.098 214.234
19.681110 45988.680 214.450
19.698275 46173.703 214.881
19.715440 46292.543 215.157
19.732606 46338.387 215.264
19.749772 46389.824 215.383
19.766939 46549.789 215.754
19.784106 46613.965 215.903
19.801274 46730.555 216.173
19.818442 46767.883 216.259
19.835611 46854.227 216.458
19.852780 46917.691 216.605
19.869950 47037.137 216.880
19.887120 47134.363 217.104
19.904290 47259.656 217.393
19.921461 47342.703 217.584
19.938632 47437.078 217.801
19.955804 47543.336 218.044
19.972976 47615.840 218.211
19.990149 47794.695 218.620
20.007322 47834.570 218.711
20.024495 47874.258 218.802
20.041670 47969.480 219.019
20.058844 48073.277 219.256
20.076019 48200.598 219.546
20.093194 48298.715 219.770
20.110370 48330.719 219.842
20.127547 48422.926 220.052
20.144723 48472.719 220.165
20.161901 48623.344 220.507
20.179078 48742.309 220.777
20.196256 48859.812 221.043
20.213435 48909.602 221.155
20.230614 48969.969 221.292
20.247794 49050.512 221.473
20.264974 49177.332 221.760
20.282154 49334.691 222.114
20.299335 49438.867 222.349
20.316516 49490.637 222.465
20.333698 49541.590 222.579
20.350880 49621.922 222.760
20.368063 49677.344 222.884
20.385246 49836.344 223.241
20.402430 49920.918 223.430
20.419614 49962.879 223.524
20.436799 50057.238 223.735
20.453984 50117.398 223.869
20.471169 50235.246 224.132
20.488355 50399.473 224.498
20.505542 50476.172 224.669
20.522729 50475.305 224.667
20.539916 50575.164 224.889
20.557104 50657.707 225.073
20.574292 50723.191 225.218
20.591481 50836.344 225.469
20.608670 50915.137 225.644
20.625860 50925.406 225.667
20.643050 50970.898 225.767
20.660241 51032.684 225.904
20.677432 51134.527 226.129
20.694624 51207.699 226.291
20.711816 51281.832 226.455
20.729008 51292.863 226.479
20.746201 51302.070 226.500
20.763395 51419.648 226.759
20.780589 51522.707 226.986
20.797783 51595.094 227.146
20.814978 51706.359 227.390
20.832174 51728.473 227.439
20.849370 51778.570 227.549
20.866566 51831.809 227.666
20.883763 51871.473 227.753
20.900960 51980.871 227.993
20.918158 52074.449 228.198
20.935356 52042.168 228.128
20.952555 52102.500 228.260
20.969754 52194.301 228.461
20.986954 52199.875 228.473
21.004154 52204.051 228.482
21.021354 52292.004 228.674
21.038556 52297.375 228.686
21.055757 52317.895 228.731
21.072959 52308.684 228.711
21.090162 52327.023 228.751
21.107365 52468.371 229.060
21.124568 52562.383 229.265
21.141772 52534.539 229.204
21.158977 52639.348 229.433
21.176182 52778.551 229.736
21.193387 52759.859 229.695
21.210593 52769.711 229.717
21.227800 52823.285 229.833
21.245007 52880.188 229.957
21.262214 52857.930 229.909
21.279422 52895.543 229.990
21.296630 52878.133 229.952
21.313839 52971.180 230.155
21.331048 52956.125 230.122
21.348258 53024.449 230.270
21.365468 52984.926 230.185
21.382679 53020.426 230.262
21.399890 53069.812 230.369
21.417102 53075.023 230.380
21.434314 53059.992 230.348
21.451527 53122.871 230.484
21.468740 53074.926 230.380
21.485954 53119.266 230.476
21.503168 53144.137 230.530
21.520383 53127.363 230.494
21.537598 53155.660 230.555
21.554814 53146.078 230.534
21.572030 53136.531 230.514
21.589247 53150.293 230.543
21.606464 53192.527 230.635
21.623682 53184.691 230.618
21.640900 53171.078 230.589
21.658118 53159.480 230.563
21.675338 53156.566 230.557
21.692557 53174.867 230.597
21.709777 53204.594 230.661
21.726998 53199.051 230.649
21.744219 53190.973 230.632
21.761441 53214.625 230.683
21.778663 53197.609 230.646
21.795885 53194.449 230.639
21.813109 53141.648 230.525
21.830332 53113.617 230.464
21.847556 53137.883 230.517
21.864781 53162.730 230.570
21.882006 53093.844 230.421
21.899232 53122.617 230.483
21.916458 53086.723 230.406
21.933684 53045.090 230.315
21.950912 53033.480 230.290
21.968139 52977.680 230.169
21.985367 52992.184 230.200
22.002596 52989.961 230.195
22.019825 52995.559 230.208
22.037055 52863.066 229.920
22.054285 52800.477 229.784
22.071515 52740.672 229.653
22.088747 52758.496 229.692
22.105978 52761.355 229.698
22.123210 52755.133 229.685
22.140443 52753.793 229.682
22.157676 52643.715 229.442
22.174910 52613.406 229.376
22.192144 52555.145 229.249
22.209379 52561.332 229.263
22.226614 52488.387 229.103
22.243850 52420.523 228.955
22.261086 52423.238 228.961
22.278323 52371.188 228.848
22.295560 52353.785 228.809
22.312798 52248.172 228.579
22.330036 52150.797 228.365
22.347275 52073.812 228.197
22.364514 52045.750 228.135
22.381754 52008.133 228.053
22.398994 51953.855 227.934
22.416235 51904.824 227.826
22.433476 51825.547 227.652
22.450718 51810.906 227.620
22.467961 51741.082 227.467
22.485204 51710.805 227.400
22.502447 51661.328 227.291
22.519691 51550.023 227.046
22.536935 51458.840 226.845
22.554180 51377.422 226.666
22.571426 51371.488 226.653
22.588672 51289.188 226.471
22.605918 51236.449 226.355
22.623165 51183.562 226.238
22.640413 51056.992 225.958
22.657661 50977.859 225.783
22.674909 50942.047 225.703
22.692159 50916.414 225.647
22.709408 50783.910 225.353
22.726658 50693.277 225.152
22.743909 50673.723 225.108
22.761160 50557.441 224.850
22.778412 50465.590 224.645
22.795664 50398.211 224.495
22.812917 50343.109 224.373
22.830170 50241.941 224.147
22.847424 50175.621 223.999
22.864678 50149.602 223.941
22.881933 49967.508 223.534
22.899189 49839.930 223.249
22.916445 49758.051 223.065
22.933701 49730.262 223.003
22.950958 49641.453 222.804
22.968216 49520.344 222.532
22.985474 49480.078 222.441
23.002732 49374.656 222.204
23.019991 49282.371 221.996
23.037251 49171.539 221.747
23.054511 49104.965 221.596
23.071772 49026.621 221.420
23.089033 48938.250 221.220
23.106295 48851.855 221.025
23.123557 48815.727 220.943
23.140820 48677.242 220.629
23.158083 48545.996 220.332
23.175347 48459.664 220.136
23.192611 48402.102 220.005
23.209876 48311.422 219.799
23.227142 48210.906 219.570
23.244408 48144.031 219.417
23.261674 48044.359 219.190
23.278941 47946.406 218.967
23.296209 47789.953 218.609
23.313477 47740.895 218.497
23.330746 47628.117 218.239
23.348015 47496.336 217.937
23.365285 47405.750 217.729
23.382555 47385.203 217.681
23.399826 47257.004 217.387
23.417097 47117.824 217.066
23.434369 47027.516 216.858
23.451641 46934.105 216.643
23.468914 46829.469 216.401
23.486188 46740.211 216.195
23.503462 46622.301 215.922
23.520737 46534.680 215.719
23.538012 46411.680 215.434
23.555288 46276.738 215.120
23.572564 46177.344 214.889
23.589841 46137.160 214.796
23.607118 45994.824 214.464
23.624396 45881.238 214.199
23.641674 45822.223 214.061
23.658953 45711.879 213.803
23.676233 45592.289 213.524
23.693513 45454.895 213.202
23.710793 45417.309 213.113
23.728074 45289.082 212.812
23.745356 45124.211 212.425
23.762638 45045.664 212.240
23.779921 44981.004 212.087
23.797205 44893.410 211.881
23.814488 44768.180 211.585
23.831773 44620.270 211.235
23.849058 44522.441 211.003
23.866343 44416.570 210.752
23.883630 44338.664 210.567
23.900916 44242.754 210.340
23.918203 44135.102 210.084
23.935491 44035.547 209.846
23.952779 43916.551 209.563
23.970068 43802.664 209.291
23.987358 43701.328 209.049
24.004648 43577.320 208.752
24.021938 43529.777 208.638
24.039229 43433.191 208.406
24.056521 43292.926 208.070
24.073813 43249.613 207.965
24.091106 43142.090 207.707
24.108399 43035.137 207.449
24.125693 43010.324 207.389
24.142987 42992.609 207.347
24.160282 43076.961 207.550
24.177578 43152.051 207.731
24.194874 42921.281 207.175
24.212171 38913.500 197.265
24.229468 33297.633 182.476
24.246766 21586.803 146.924
24.264064 6863.524 82.846
24.281363 6005.917 77.498
24.298662 0.000 1.000
24.315962 0.000 1.000
24.333263 0.000 1.000
24.350564 0.000 1.000
24.367866 0.000 1.000
24.385168 0.000 1.000
24.402471 0.000 1.000
24.419774 0.000 1.000
24.437078 0.000 1.000
24.454383 0.000 1.000
24.471688 0.000 1.000
24.488993 0.000 1.000
24.506300 0.000 1.000
24.523607 0.000 1.000
24.540914 0.000 1.000
24.558222 0.000 1.000
24.575530 0.000 1.000
24.592839 0.000 1.000
24.610149 0.000 1.000
24.627459 0.000 1.000
24.644770 0.000 1.000
24.662081 0.000 1.000
24.679393 0.000 1.000
24.696706 0.000 1.000
24.714019 0.000 1.000
24.731333 0.000 1.000
24.748647 0.000 1.000
24.765962 0.000 1.000
24.783277 0.000 1.000
24.800593 0.000 1.000
24.817909 0.000 1.000
24.835226 0.000 1.000
24.852544 0.000 1.000
24.869862 0.000 1.000
24.887181 0.000 1.000
24.904501 0.000 1.000
24.921821 49359.961 222.171
24.939141 47988.953 219.064
24.956462 44272.758 210.411
24.973784 43344.109 208.192
24.991106 40101.496 200.254
25.008429 38517.641 196.259
25.025753 38124.668 195.255
25.043077 37889.562 194.652
25.060401 37752.324 194.300
25.077726 37630.301 193.985
25.095052 37488.977 193.621
25.112379 37272.980 193.062
25.129706 37200.449 192.874
25.147033 37168.984 192.793
25.164361 37087.781 192.582
25.181690 36952.543 192.230
25.199019 36855.965 191.979
25.216349 36711.723 191.603
25.233680 36605.488 191.326
25.251011 36488.141 191.019
25.268342 36420.438 190.841
25.285674 36336.281 190.621
25.303007 36234.332 190.353
25.320341 36177.496 190.204
25.337675 36034.082 189.826
25.355009 35855.117 189.354
25.372344 35737.664 189.044
25.389680 35629.922 188.759
25.407017 35449.715 188.281
25.424353 35323.055 187.944
25.441691 35142.137 187.462
25.459029 35012.879 187.117
25.476368 34924.691 186.881
25.493707 34783.676 186.504
25.511047 34625.840 186.080
25.528388 34472.211 185.667
25.545729 34359.277 185.363
25.563070 34239.129 185.038
25.580413 34131.125 184.746
25.597755 34008.141 184.413
25.615099 33872.559 184.045
25.632443 33700.035 183.576
25.649788 33547.062 183.159
25.667133 33344.004 182.603
25.684479 33175.641 182.142
25.701825 33057.773 181.818
25.719172 32891.473 181.360
25.736520 32753.119 180.978
25.753868 32592.434 180.534
25.771217 32415.424 180.043
25.788567 32283.881 179.677
25.805917 32103.756 179.175
25.823267 31969.494 178.800
25.840619 31826.230 178.399
25.857970 31678.154 177.984
25.875323 31564.074 177.663
25.892676 31459.184 177.367
25.910030 31315.389 176.962
25.927384 31158.762 176.518
25.944739 31070.840 176.269
25.962094 30941.992 175.903
25.979450 30819.451 175.555
25.996807 30713.082 175.251
26.014165 30591.949 174.906
26.031522 30515.830 174.688
26.048881 30378.410 174.294
26.066240 30279.328 174.010
26.083600 30202.303 173.788
26.100960 30096.861 173.484
26.118321 29962.531 173.097
26.135683 29867.873 172.823
26.153045 29791.387 172.602
26.170408 29654.693 172.205
26.187771 29564.582 171.944
26.205135 29507.973 171.779
26.222500 29379.023 171.403
26.239865 29330.234 171.261
26.257231 29223.812 170.950
26.274597 29151.783 170.739
26.291964 29010.678 170.325
26.309332 28910.244 170.030
26.326701 28848.961 169.850
26.344069 28780.488 169.648
26.361439 28683.773 169.363
26.378809 28573.631 169.037
26.396180 28496.656 168.810
26.413551 28431.223 168.616
26.430923 28316.008 168.274
26.448296 28239.375 168.046
26.465669 28118.264 167.685
26.483043 28056.670 167.501
26.500418 28009.586 167.361
26.517793 27918.719 167.089
26.535168 27793.572 166.714
26.552545 27693.352 166.413
26.569922 27619.311 166.191
26.587299 27549.572 165.981
26.604678 27489.742 165.800
26.622057 27379.305 165.467
26.639436 27302.355 165.234
26.656816 27243.586 165.056
26.674197 27137.436 164.734
26.691578 27029.230 164.406
26.708960 26968.250 164.220
26.726343 26853.986 163.872
26.743726 26778.148 163.640
26.761110 26744.232 163.537
26.778494 26667.061 163.301
26.795879 26579.025 163.031
26.813265 26482.023 162.733
26.830651 26388.150 162.444
26.848038 26328.279 162.260
26.865426 26211.850 161.901
26.882814 26140.174 161.679
26.900203 26084.061 161.506
26.917593 25992.842 161.223
26.934983 25931.117 161.031
26.952374 25864.121 160.823
26.969765 25781.207 160.565
26.987157 25691.053 160.284
27.004550 25613.297 160.042
27.021943 25548.438 159.839
27.039337 25460.547 159.564
27.056732 25417.465 159.429
27.074127 25312.082 159.098
27.091523 25235.840 158.858
27.108919 25166.322 158.639
27.126316 25103.934 158.442
27.143714 24972.906 158.028
27.161112 24893.334 157.776
27.178511 24842.686 157.616
27.195911 24828.078 157.569
27.213311 24707.805 157.187
27.230712 24619.820 156.907
27.248114 24571.979 156.755
27.265516 24499.895 156.524
27.282919 24410.201 156.238
27.300323 24296.602 155.874
27.317727 24273.596 155.800
27.335132 24183.600 155.511
27.352537 24117.799 155.299
27.369943 24053.289 155.091
27.387350 23979.021 154.852
27.404757 23912.322 154.636
27.422165 23845.154 154.419
27.439574 23768.193 154.169
27.456983 23706.223 153.968
27.474393 23649.471 153.784
27.491804 23565.355 153.510
27.509215 23493.357 153.275
27.526627 23418.402 153.031
27.544040 23331.252 152.746
27.561453 23283.420 152.589
27.578867 23230.084 152.414
27.596281 23134.641 152.101
27.613696 23070.105 151.888
27.631112 23005.256 151.675
27.648528 22918.105 151.387
27.665946 22865.787 151.214
27.683363 22755.875 150.851
27.700782 22696.486 150.654
27.718201 22636.199 150.453
27.735620 22573.387 150.244
27.753041 22519.727 150.066
27.770462 22447.602 149.825
27.787883 22375.779 149.585
27.805306 22301.076 149.335
27.822729 22239.727 149.130
27.840152 22182.441 148.938
27.857577 22118.908 148.724
27.875002 22033.449 148.437
27.892427 21981.557 148.262
27.909854 21912.447 148.029
27.927280 21810.328 147.683
27.944708 21765.945 147.533
27.962136 21725.441 147.396
27.979565 21669.709 147.206
27.996995 21597.322 146.960
28.014425 21528.715 146.727
28.031856 21457.604 146.484
28.049287 21422.992 146.366
28.066720 21362.057 146.158
28.084152 21260.709 145.811
28.101586 21213.143 145.647
28.119020 21149.666 145.429
28.136455 21091.521 145.229
28.153891 21019.068 144.980
28.171327 20944.746 144.723
28.188764 20882.320 144.507
28.206201 20822.443 144.300
28.223639 20784.361 144.168
28.241078 20708.865 143.906
28.258518 20625.029 143.614
28.275958 20547.947 143.346
28.293399 20497.297 143.169
28.310840 20421.043 142.902
28.328283 20373.184 142.735
28.345725 20320.307 142.549
28.363169 20270.844 142.376
28.380613 20221.973 142.204
28.398058 20133.820 141.894
28.415504 20080.270 141.705
28.432950 20040.801 141.566
28.450397 19979.418 141.349
28.467844 19891.104 141.036
28.485293 19851.930 140.897
28.502742 19767.805 140.598
28.520191 19655.363 140.198
28.537641 19617.951 140.064
28.555092 19570.732 139.895
28.572544 19519.738 139.713
28.589996 19434.436 139.407
28.607449 19363.701 139.154
28.624903 19309.527 138.959
28.642357 19253.934 138.759
28.659812 19188.680 138.523
28.677268 19115.037 138.257
28.694724 19062.699 138.068
28.712181 19012.418 137.886
28.729639 18952.639 137.669
28.747098 18879.795 137.404
28.764557 18829.354 137.220
28.782016 18745.514 136.914
28.799477 18702.547 136.757
28.816938 18624.695 136.472
28.834400 18557.303 136.225
28.851862 18504.889 136.033
28.869326 18457.244 135.857
28.886790 18391.215 135.614
28.904254 18322.348 135.360
28.921719 18287.012 135.229
28.939185 18230.059 135.019
28.956652 18151.646 134.728
28.974119 18094.354 134.515
28.991587 18038.539 134.308
29.009056 18002.506 134.173
29.026525 17916.916 133.854
29.043995 17875.510 133.699
29.061466 17823.969 133.506
29.078938 17761.342 133.272
29.096410 17704.018 133.056
29.113883 17651.389 132.859
29.131356 17602.438 132.674
29.148830 17523.268 132.375
29.166305 17474.547 132.191
29.183781 17438.166 132.054
29.201257 17352.350 131.728
29.218734 17305.441 131.550
29.236212 17293.559 131.505
29.253690 17203.650 131.163
29.271169 17150.180 130.959
29.288649 17110.084 130.806
29.306130 17059.414 130.612
29.323611 17009.041 130.419
29.341093 16941.510 130.160
29.358575 16882.102 129.931
29.376058 16810.410 129.655
29.393542 16758.119 129.453
29.411027 16674.480 129.130
29.428512 16634.271 128.974
29.445998 16569.398 128.722
29.463485 16533.887 128.584
29.480973 16476.129 128.359
29.498461 16421.248 128.145
29.515950 16339.252 127.825
29.533439 16275.196 127.574
29.550930 16197.990 127.271
29.568421 16138.182 127.036
29.585912 16064.367 126.745
29.603405 15998.985 126.487
29.620898 15916.378 126.160
29.638392 15845.028 125.877
29.655886 15768.219 125.572
29.673381 15716.451 125.365
29.690877 15686.508 125.246
29.708374 15667.530 125.170
29.725871 15642.695 125.071
29.743369 15641.454 125.066
29.760868 15532.095 124.628
29.778367 15469.166 124.375
29.795868 15397.184 124.085
29.813369 15291.797 123.660
29.830870 15216.426 123.355
29.848372 15139.923 123.044
29.865875 15044.343 122.655
29.883379 14968.521 122.346
29.900884 14920.729 122.150
29.918389 14856.625 121.888
29.935895 14793.842 121.630
29.953401 14723.136 121.339
29.970909 14629.079 120.951
29.988417 14580.500 120.750
30.005925 14543.232 120.595
30.023435 14471.003 120.295
30.040945 14401.725 120.007
30.058456 14365.791 119.857
30.075968 14334.317 119.726
30.093480 14267.566 119.447
30.110993 14240.086 119.332
30.128507 14204.803 119.184
30.146021 14172.448 119.048
30.163536 14147.949 118.945
30.181052 14115.961 118.811
30.198569 14091.679 118.708
30.216086 14078.267 118.652
30.233605 14078.552 118.653
30.251123 14072.078 118.626
30.268643 14066.199 118.601
30.286163 14065.101 118.596
30.303684 14072.627 118.628
30.321206 14080.786 118.662
30.338728 14089.564 118.699
30.356252 14101.841 118.751
30.373775 14129.948 118.869
30.391300 14141.857 118.920
30.408825 14172.870 119.050
30.426352 14208.031 119.197
30.443878 14216.765 119.234
30.461406 14235.396 119.312
30.478934 14267.862 119.448
30.496463 14329.268 119.705
30.513993 14373.408 119.889
30.531523 14425.953 120.108
30.549055 14446.778 120.195
30.566587 14492.284 120.384
30.584119 14496.262 120.400
30.601653 14545.026 120.603
30.619187 14587.052 120.777
30.636722 14611.038 120.876
30.654257 14665.018 121.099
30.671794 14694.368 121.220
30.689331 14691.311 121.208
30.706869 14708.646 121.279
30.724407 14731.160 121.372
30.741946 14726.334 121.352
30.759486 14727.915 121.359
30.777027 14742.088 121.417
30.794569 14724.656 121.345
30.812111 14706.051 121.269
30.829654 14669.729 121.119
30.847198 14667.332 121.109
30.864742 14660.898 121.082
30.882287 14635.078 120.976
30.899833 14538.573 120.576
30.917380 14487.918 120.366
30.934927 14447.456 120.198
30.952476 14391.819 119.966
30.970024 14337.182 119.738
30.987574 14250.896 119.377
31.005125 14169.088 119.034
31.022676 14070.258 118.618
31.040228 13978.510 118.231
31.057780 13865.896 117.754
31.075334 13742.320 117.228
31.092888 13627.477 116.737
31.110443 13493.203 116.160
31.127998 13347.492 115.531
31.145555 13209.979 114.935
31.163112 13078.286 114.360
31.180670 12935.440 113.734
31.198228 12792.998 113.106
31.215788 12621.062 112.343
31.233348 12462.642 111.636
31.250909 12294.369 110.880
31.268471 12127.395 110.124
31.286033 11942.512 109.282
31.303596 11760.761 108.447
31.321160 11586.178 107.639
31.338725 11413.679 106.835
31.356290 11237.707 106.008
31.373856 11047.390 105.107
31.391423 10881.609 104.315
31.408991 10669.499 103.293
31.426559 10503.584 102.487
31.444129 10341.758 101.694
31.461699 10146.818 100.731
31.479269 9962.724 99.813
31.496841 9815.607 99.074
31.514413 9639.357 98.180
31.531986 9450.985 97.216
31.549560 9305.816 96.467
31.567134 9143.213 95.620
31.584710 8962.994 94.673
31.602286 8798.412 93.800
31.619862 8655.196 93.033
31.637440 8482.238 92.099
31.655018 8344.397 91.348
31.672597 8195.161 90.527
31.690177 8047.874 89.710
31.707758 7921.503 89.003
31.725339 7783.934 88.227
31.742921 7661.996 87.533
31.760504 7534.881 86.804
31.778088 7409.978 86.081
31.795673 7298.973 85.434
31.813258 7179.366 84.731
31.830844 7078.647 84.135
31.848431 6966.354 83.465
31.866018 6894.495 83.033
31.883606 6787.944 82.389
31.901196 6681.341 81.739
31.918785 6600.690 81.245
31.936376 6507.838 80.671
31.953967 6412.406 80.077
31.971560 6325.729 79.534
31.989153 6261.306 79.128
32.006746 6195.699 78.713
32.024341 6121.730 78.241
32.041936 6050.709 77.786
32.059532 5985.006 77.363
32.077129 5921.416 76.951
32.094727 5864.895 76.583
32.112325 5801.455 76.167
32.129924 5748.619 75.820
32.147524 5695.033 75.465
32.165125 5648.979 75.160
32.182726 5602.955 74.853
32.200329 5544.905 74.464
32.217932 5496.884 74.141
32.235535 5460.039 73.892
32.253140 5407.080 73.533
32.270745 5365.299 73.248
32.288352 5315.810 72.910
32.305959 5269.903 72.594
32.323566 5236.874 72.366
32.341175 5197.868 72.096
32.358784 5154.618 71.796
32.376394 5118.061 71.541
32.394005 5082.567 71.292
32.411617 5042.017 71.007
32.429229 5008.018 70.767
32.446843 4971.889 70.512
32.464457 4930.899 70.220
32.482072 4894.487 69.961
32.499687 4873.697 69.812
32.517304 4831.746 69.511
32.534921 4801.754 69.295
32.552539 4759.366 68.988
32.570157 4722.141 68.718
32.587777 4694.828 68.519
32.605397 4672.775 68.358
32.623019 4626.663 68.020
32.640641 4597.007 67.801
32.658263 4563.370 67.553
32.675887 4537.332 67.360
32.693511 4496.849 67.059
32.711136 4464.247 66.815
32.728762 4446.539 66.682
32.746389 4411.941 66.422
32.764016 4380.169 66.183
32.781645 4345.633 65.921
32.799274 4310.654 65.656
32.816904 4278.955 65.414
32.834534 4251.829 65.206
32.852166 4239.450 65.111
32.869798 4207.358 64.864
32.887431 4171.924 64.590
32.905065 4139.235 64.337
32.922700 4123.227 64.212
32.940335 4093.434 63.980
32.957972 4062.863 63.741
32.975609 4025.212 63.445
32.993247 4005.338 63.288
33.010885 3966.883 62.983
33.028525 3945.988 62.817
33.046165 3918.933 62.601
33.063806 3892.673 62.391
33.081448 3882.125 62.307
33.099091 3865.084 62.170
33.116735 3835.643 61.933
33.134379 3817.573 61.787
33.152024 3799.205 61.638
33.169670 3778.314 61.468
33.187317 3768.721 61.390
33.204965 3748.470 61.225
33.222613 3728.958 61.065
33.240262 3713.682 60.940
33.257912 3702.773 60.850
33.275563 3682.017 60.680
33.293215 3663.589 60.528
33.310867 3649.571 60.412
33.328521 3623.303 60.194
33.346175 3621.187 60.176
33.363830 3597.081 59.976
33.381485 3578.709 59.822
33.399142 3572.055 59.767
33.416799 3559.511 59.662
33.434457 3546.818 59.555
33.452116 3529.940 59.413
33.469776 3526.418 59.384
33.487437 3519.545 59.326
33.505098 3508.018 59.229
33.522760 3510.451 59.249
33.540424 3490.940 59.084
33.558087 3495.034 59.119
33.575752 3472.986 58.932
33.593418 3483.198 59.019
33.611084 3480.048 58.992
33.628751 3475.124 58.950
33.646419 3465.096 58.865
33.664088 3472.360 58.927
33.681758 3456.730 58.794
33.699428 3443.913 58.685
33.717100 3448.484 58.724
33.734772 3444.838 58.693
33.752445 3442.443 58.672
33.770119 3431.707 58.581
33.787793 3432.028 58.584
33.805469 3429.642 58.563
33.823145 3419.205 58.474
33.840822 3410.142 58.396
33.858500 3408.597 58.383
33.876179 3417.255 58.457
33.893858 3404.740 58.350
33.911539 3397.496 58.288
33.929220 3398.813 58.299
33.946902 3396.295 58.278
33.964585 3387.256 58.200
33.982269 3383.500 58.168
33.999953 3383.390 58.167
34.017639 3382.267 58.157
34.035325 3394.551 58.263
34.053012 3404.190 58.345
34.070700 3408.385 58.381
34.088389 3403.053 58.336
34.106079 3387.769 58.205
34.123769 3359.677 57.963
34.141460 3299.579 57.442
34.159152 3122.381 55.878
34.176845 0.000 1.000
34.194539 0.000 1.000
34.212234 0.000 1.000
34.229929 0.000 1.000
34.247626 0.000 1.000
34.265323 0.000 1.000
34.283021 0.000 1.000
34.300720 0.000 1.000
34.318419 0.000 1.000
34.336120 0.000 1.000
34.353821 0.000 1.000
34.371523 0.000 1.000
34.389227 0.000 1.000
34.406930 0.000 1.000
34.424635 0.000 1.000
34.442341 0.000 1.000
34.460047 0.000 1.000
34.477755 0.000 1.000
34.495463 0.000 1.000
34.513172 0.000 1.000
34.530882 0.000 1.000
34.548592 0.000 1.000
34.566304 0.000 1.000
34.584016 0.000 1.000
34.601730 0.000 1.000
34.619444 0.000 1.000
34.637159 0.000 1.000
34.654875 0.000 1.000
34.672591 0.000 1.000
34.690309 4426.102 66.529
34.708027 3680.241 60.665
34.725746 3454.035 58.771
34.743467 3360.301 57.968
34.761187 3241.256 56.932
34.778909 3172.532 56.325
34.796632 3158.223 56.198
34.814356 3148.605 56.112
34.832080 3131.605 55.961
34.849805 3130.283 55.949
34.867531 3127.124 55.921
34.885258 3108.719 55.756
34.902986 3109.347 55.762
34.920715 3108.694 55.756
34.938444 3106.375 55.735
34.956175 3094.595 55.629
34.973906 3086.644 55.558
34.991638 3087.074 55.561
35.009371 3087.906 55.569
35.027105 3076.337 55.465
35.044840 3067.031 55.381
35.062576 3068.767 55.396
35.080312 3067.293 55.383
35.098049 3066.579 55.377
35.115788 3055.859 55.280
35.133527 3048.294 55.211
35.151267 3041.039 55.146
35.169008 3039.218 55.129
35.186749 3032.360 55.067
35.204492 3037.188 55.111
35.222235 3031.585 55.060
35.239980 3029.711 55.043
35.257725 3021.452 54.968
35.275471 3017.849 54.935
35.293218 3013.442 54.895
35.310966 3005.327 54.821
35.328714 2996.032 54.736
35.346464 2993.726 54.715
35.364214 2995.492 54.731
35.381966 2996.684 54.742
35.399718 2995.065 54.727
35.417471 2987.967 54.662
35.435225 2989.115 54.673
35.452980 2981.784 54.606
35.470735 2964.010 54.443
35.488492 2961.026 54.415
35.506249 2965.470 54.456
35.524008 2956.201 54.371
35.541767 2950.020 54.314
35.559527 2955.267 54.362
35.577288 2944.918 54.267
35.595050 2946.061 54.278
35.612813 2940.188 54.223
35.630576 2932.344 54.151
35.648341 2926.567 54.098
35.666106 2922.638 54.061
35.683873 2921.477 54.051
35.701640 2906.667 53.914
35.719408 2915.396 53.994
35.737177 2901.988 53.870
35.754947 2904.368 53.892
35.772717 2906.500 53.912
35.790489 2897.788 53.831
35.808262 2888.482 53.745
35.826035 2887.138 53.732
35.843809 2882.986 53.693
35.861585 2886.103 53.722
35.879361 2876.501 53.633
35.897138 2869.182 53.565
35.914915 2864.517 53.521
35.932694 2861.992 53.498
35.950474 2863.775 53.514
35.968254 2858.712 53.467
35.986036 2850.937 53.394
36.003818 2851.952 53.404
36.021602 2854.071 53.424
36.039386 2839.474 53.287
36.057171 2839.631 53.288
36.074957 2843.145 53.321
36.092743 2835.404 53.249
36.110531 2829.983 53.198
36.128320 2834.882 53.244
36.146109 2825.550 53.156
36.163900 2822.526 53.127
36.181691 2812.589 53.034
36.199483 2815.692 53.063
36.217277 2807.299 52.984
36.235071 2805.645 52.968
36.252866 2804.666 52.959
36.270661 2792.658 52.846
36.288458 2799.041 52.906
36.306256 2785.292 52.776
36.324054 2789.139 52.812
36.341854 2790.660 52.827
36.359654 2779.789 52.724
36.377456 2775.983 52.688
36.395258 2766.189 52.595
36.413061 2771.526 52.645
36.430865 2768.831 52.620
36.448670 2762.399 52.559
36.466476 2760.317 52.539
36.484283 2754.946 52.488
36.502090 2747.054 52.412
36.519899 2743.983 52.383
36.537708 2740.754 52.352
36.555519 2739.707 52.342
36.573330 2734.048 52.288
36.591142 2726.263 52.214
36.608955 2735.630 52.303
36.626769 2728.037 52.231
36.644584 2722.261 52.175
36.662400 2720.267 52.156
36.680217 2709.479 52.053
36.698035 2710.693 52.064
36.715854 2714.247 52.098
36.733673 2709.411 52.052
36.751494 2699.678 51.958
36.769315 2696.269 51.926
36.787137 2695.370 51.917
36.804961 2700.405 51.965
36.822785 2696.449 51.927
36.840610 2685.824 51.825
36.858436 2684.040 51.808
36.876263 2668.486 51.657
36.894091 2676.320 51.733
36.911920 2683.927 51.807
36.929749 2667.977 51.652
36.947580 2670.259 51.675
36.965412 2654.580 51.523
36.983244 2665.463 51.628
37.001078 2659.194 51.567
37.018912 2655.132 51.528
37.036747 2652.131 51.499
37.054584 2647.875 51.458
37.072421 2642.239 51.403
37.090259 2639.819 51.379
37.108098 2646.560 51.445
37.125938 2642.130 51.402
37.143779 2637.688 51.358
37.161620 2630.833 51.292
37.179463 2630.526 51.289
37.197307 2632.333 51.306
37.215152 2625.463 51.239
37.232997 2617.183 51.158
37.250844 2616.673 51.153
37.268691 2597.320 50.964
37.286539 2601.945 51.009
37.304389 2610.247 51.091
37.322239 2600.014 50.990
37.340090 2595.634 50.947
37.357942 2588.442 50.877
37.375795 2582.244 50.816
37.393649 2582.699 50.820
37.411504 2589.705 50.889
37.429360 2584.846 50.841
37.447217 2587.775 50.870
37.465075 2571.567 50.711
37.482934 2582.328 50.817
37.500793 2580.188 50.796
37.518654 2569.949 50.695
37.536515 2563.343 50.629
37.554378 2559.882 50.595
37.572241 2550.593 50.503
37.590106 2546.372 50.462
37.607971 2548.846 50.486
37.625837 2547.748 50.475
37.643705 2547.758 50.475
37.661573 2542.709 50.425
37.679442 2544.408 50.442
37.697312 2528.711 50.286
37.715183 2543.672 50.435
37.733055 2542.584 50.424
37.750928 2522.886 50.228
37.768802 2519.395 50.194
37.786677 2509.296 50.093
37.804553 2518.834 50.188
37.822429 2520.024 50.200
37.840307 2513.172 50.132
37.858186 2505.026 50.050
37.876065 2501.946 50.019
37.893946 2506.829 50.068
37.911827 2506.230 50.062
37.929710 2495.288 49.953
37.947593 2495.221 49.952
37.965478 2494.145 49.941
37.983363 2495.335 49.953
38.001250 2486.954 49.869
38.019137 2479.391 49.793
38.037025 2485.031 49.850
38.054914 2475.565 49.755
38.072805 2467.027 49.669
38.090696 2460.482 49.603
38.108588 2468.652 49.686
38.126481 2466.083 49.660
38.144375 2457.916 49.577
38.162270 2456.041 49.558
38.180166 2452.979 49.528
38.198063 2450.312 49.501
38.215961 2445.174 49.449
38.233860 2447.957 49.477
38.251760 2441.140 49.408
38.269660 2438.637 49.383
38.287562 2435.064 49.346
38.305465 2430.523 49.300
38.323369 2427.279 49.267
38.341273 2431.110 49.306
38.359179 2425.491 49.249
38.377086 2420.319 49.197
38.394993 2417.845 49.172
38.412902 2420.972 49.203
38.430812 2412.098 49.113
38.448722 2407.217 49.063
38.466634 2406.174 49.053
38.484546 2399.893 48.989
38.502460 2403.330 49.024
38.520374 2403.421 49.025
38.538290 2391.729 48.905
38.556206 2394.247 48.931
38.574123 2403.536 49.026
38.592042 2408.249 49.074
38.609961 2408.566 49.077
38.627882 2397.282 48.962
38.645803 2392.751 48.916
38.663725 2386.456 48.851
38.681649 2387.103 48.858
38.699573 2386.940 48.856
38.717498 2383.541 48.822
38.735424 2376.778 48.752
38.753352 2376.774 48.752
38.771280 2373.027 48.714
38.789209 2366.450 48.646
38.807139 2365.155 48.633
38.825070 2350.634 48.483
38.843003 2347.305 48.449
38.860936 2350.232 48.479
38.878870 2351.174 48.489
38.896805 2351.419 48.491
38.914741 2349.347 48.470
38.932678 2339.889 48.372
38.950616 2341.377 48.388
38.968555 2335.919 48.331
38.986496 2335.620 48.328
39.004437 2325.421 48.223
39.022379 2334.517 48.317
39.040322 2323.719 48.205
39.058266 2324.466 48.213
39.076211 2320.399 48.171
39.094157 2320.804 48.175
39.112104 2311.162 48.075
39.130052 2313.828 48.102
39.148001 2306.490 48.026
39.165951 2305.958 48.020
39.183903 2299.235 47.950
39.201855 2296.487 47.922
39.219808 2294.062 47.896
39.237762 2291.559 47.870
39.255717 2295.596 47.912
39.273673 2285.385 47.806
39.291630 2286.015 47.812
39.309588 2277.760 47.726
39.327547 2286.240 47.815
39.345507 2281.076 47.761
39.363468 2280.565 47.755
39.381431 2275.256 47.700
39.399394 2272.260 47.668
39.417358 2266.728 47.610
39.435323 2264.707 47.589
39.453289 2263.208 47.573
39.471256 2257.400 47.512
39.489224 2250.582 47.440
39.507194 2252.578 47.461
39.525164 2250.365 47.438
39.543135 2240.744 47.337
39.561107 2247.545 47.408
39.579081 2238.695 47.315
39.597055 2239.035 47.318
39.615030 2240.760 47.337
39.633006 2246.353 47.396
39.650984 2240.836 47.337
39.668962 2223.137 47.150
39.686941 2222.863 47.147
39.704922 2225.116 47.171
39.722903 2224.362 47.163
39.740885 2219.241 47.109
39.758869 2220.781 47.125
39.776853 2216.859 47.084
39.794839 2214.571 47.059
39.812825 2208.660 46.996
39.830813 2200.679 46.911
39.848801 2202.799 46.934
39.866791 2192.746 46.827
39.884781 2198.167 46.885
39.902773 2191.064 46.809
39.920765 2191.154 46.810
39.938759 2187.493 46.771
39.956754 2183.988 46.733
39.974749 2180.753 46.699
39.992746 2176.021 46.648
40.010744 2182.521 46.717
40.028743 2177.324 46.662
40.046743 2176.692 46.655
40.064743 2162.428 46.502
40.082745 2160.624 46.483
40.100748 2157.942 46.454
40.118752 2166.950 46.551
40.136757 2163.032 46.508
40.154763 2164.623 46.526
40.172770 2149.542 46.363
40.190778 2156.837 46.442
40.208787 2146.403 46.329
40.226797 2146.195 46.327
40.244809 2144.613 46.310
40.262821 2138.593 46.245
40.280834 2132.370 46.178
40.298848 2128.169 46.132
40.316864 2128.130 46.132
40.334880 2129.058 46.142
40.352898 2122.006 46.065
40.370916 2121.623 46.061
40.388935 2110.866 45.944
40.406956 2117.187 46.013
40.424978 2104.393 45.874
40.443000 2104.320 45.873
40.461024 2118.743 46.030
40.479049 2111.005 45.946
40.497074 2111.103 45.947
40.515101 2105.475 45.885
40.533129 2100.031 45.826
40.551158 2101.418 45.841
40.569188 2098.128 45.805
40.587219 2098.049 45.804
40.605251 2094.548 45.766
40.623284 2091.454 45.732
40.641318 2088.111 45.696
40.659353 2088.293 45.698
40.677390 2081.709 45.626
40.695427 2083.982 45.651
40.713465 2085.402 45.666
40.731505 2084.885 45.661
40.749545 2079.070 45.597
40.767587 2069.310 45.490
40.785629 2065.172 45.444
40.803673 2064.293 45.434
40.821718 2064.199 45.433
40.839763 2062.560 45.415
40.857810 2058.366 45.369
40.875858 2054.930 45.331
40.893907 2059.127 45.378
40.911957 2053.406 45.315
40.930008 2045.278 45.225
40.948060 2057.629 45.361
40.966113 2052.539 45.305
40.984167 2038.921 45.154
41.002223 2042.502 45.194
41.020279 2042.586 45.195
41.038336 2033.659 45.096
41.056395 2034.427 45.105
41.074454 2031.791 45.075
41.092515 2024.097 44.990
41.110577 2027.177 45.024
41.128640 2028.966 45.044
41.146703 2022.838 44.976
41.164768 2016.977 44.911
41.182834 2021.521 44.961
41.200901 2021.274 44.959
41.218969 2018.138 44.924
41.237038 2011.632 44.851
41.255109 2007.552 44.806
41.273180 2009.353 44.826
41.291252 2000.988 44.732
41.309326 2004.323 44.770
41.327400 2001.859 44.742
41.345476 2002.108 44.745
41.363553 1998.444 44.704
41.381630 1998.779 44.708
41.399709 1997.081 44.689
41.417789 1992.559 44.638
41.435870 1994.494 44.660
41.453952 1994.603 44.661
41.472035 1990.707 44.617
41.490120 1986.786 44.573
41.508205 1985.132 44.555
41.526291 1982.345 44.524
41.544379 1977.909 44.474
41.562467 1976.257 44.455
41.580557 1972.603 44.414
41.598648 1970.345 44.389
41.616740 1976.584 44.459
41.634833 1980.742 44.506
41.652926 1967.889 44.361
41.671022 1974.738 44.438
41.689118 1968.353 44.366
41.707215 1968.589 44.369
41.725313 1969.411 44.378
41.743413 1967.654 44.358
41.761513 1957.900 44.248
41.779615 1954.923 44.215
41.797718 1964.119 44.318
41.815821 1960.009 44.272
41.833926 1953.229 44.195
41.852032 1949.464 44.153
41.870139 1946.400 44.118
41.888247 1945.354 44.106
41.906357 1944.487 44.096
41.924467 1936.501 44.006
41.942579 1939.301 44.037
41.960691 1936.709 44.008
41.978805 1936.958 44.011
41.996919 1932.254 43.957
42.015035 1931.797 43.952
42.033152 1931.271 43.946
42.051270 1935.437 43.994
42.069389 1934.168 43.979
42.087510 1944.615 44.098
42.105631 1943.354 44.083
42.123754 1955.127 44.217
42.141877 1941.441 44.062
42.160002 1910.448 43.709
42.178128 1871.866 43.265
42.196254 0.000 1.000
42.214382 0.000 1.000
42.232511 0.000 1.000
42.250642 0.000 1.000
42.268773 0.000 1.000
42.286905 0.000 1.000
42.305039 0.000 1.000
42.323174 0.000 1.000
42.341309 0.000 1.000
42.359446 0.000 1.000
42.377584 0.000 1.000
42.395723 0.000 1.000
42.413863 0.000 1.000
42.432005 0.000 1.000
42.450147 0.000 1.000
42.468291 0.000 1.000
42.486435 0.000 1.000
42.504581 0.000 1.000
42.522728 0.000 1.000
42.540876 0.000 1.000
42.559025 0.000 1.000
42.577175 0.000 1.000
42.595327 3604.272 60.036
42.613479 2765.464 52.588
42.631633 2292.731 47.882
42.649788 2128.090 46.131
42.667943 2004.030 44.766
42.686100 1875.680 43.309
42.704259 1848.573 42.995
42.722418 1850.734 43.020
42.740578 1846.856 42.975
42.758740 1841.539 42.913
42.776902 1834.483 42.831
42.795066 1844.098 42.943
42.813231 1835.510 42.843
42.831397 1832.293 42.805
42.849564 1818.121 42.639
42.867732 1818.667 42.646
42.885902 1819.072 42.651
42.904072 1820.303 42.665
42.922244 1813.619 42.587
42.940417 1814.357 42.595
42.958590 1806.266 42.500
42.976765 1812.275 42.571
42.994942 1810.661 42.552
43.013119 1809.303 42.536
43.031297 1807.570 42.516
43.049477 1801.180 42.440
43.067658 1792.532 42.338
43.085840 1794.685 42.364
43.104023 1798.049 42.403
43.122207 1786.351 42.265
43.140392 1800.240 42.429
43.158579 1801.520 42.444
43.176766 1793.337 42.348
43.194955 1787.901 42.284
43.213145 1785.117 42.251
43.231336 1785.323 42.253
43.249528 1777.994 42.166
43.267721 1774.160 42.121
43.285915 1773.203 42.109
43.304111 1767.348 42.040
43.322308 1765.474 42.018
43.340506 1767.019 42.036
43.358705 1770.633 42.079
43.376905 1767.530 42.042
43.395106 1763.938 41.999
43.413309 1761.622 41.972
43.431512 1757.448 41.922
43.449717 1764.414 42.005
43.467923 1763.037 41.989
43.486130 1757.251 41.920
43.504338 1752.323 41.861
43.522548 1745.809 41.783
43.540758 1748.158 41.811
43.558970 1738.302 41.693
43.577183 1738.513 41.695
43.595397 1744.379 41.766
43.613612 1737.569 41.684
43.631828 1739.091 41.702
43.650046 1732.031 41.618
43.668264 1738.913 41.700
43.686484 1727.447 41.563
43.704705 1726.497 41.551
43.722927 1735.853 41.664
43.741151 1729.338 41.585
43.759375 1726.526 41.551
43.777601 1721.580 41.492
43.795828 1724.809 41.531
43.814055 1725.063 41.534
43.832285 1721.979 41.497
43.850515 1711.013 41.364
43.868746 1716.609 41.432
43.886979 1718.548 41.455
43.905213 1708.917 41.339
43.923448 1705.854 41.302
43.941684 1704.062 41.280
43.959921 1700.606 41.238
43.978160 1698.477 41.213
43.996399 1696.836 41.193
44.014640 1701.636 41.251
44.032882 1695.396 41.175
44.051125 1694.332 41.162
44.069370 1687.280 41.077
44.087615 1684.785 41.046
44.105862 1697.632 41.202
44.124110 1687.905 41.084
44.142359 1685.198 41.051
44.160609 1678.279 40.967
44.178860 1685.308 41.053
44.197113 1684.397 41.041
44.215367 1684.616 41.044
44.233622 1681.718 41.009
44.251878 1681.072 41.001
44.270135 1674.691 40.923
44.288394 1678.440 40.969
44.306653 1667.483 40.835
44.324914 1680.692 40.996
44.343176 1679.279 40.979
44.361439 1672.677 40.898
44.379704 1672.321 40.894
44.397969 1667.003 40.829
44.416236 1667.076 40.830
44.434504 1666.687 40.825
44.452773 1661.990 40.768
44.471044 1659.815 40.741
44.489315 1653.598 40.664
44.507588 1655.109 40.683
44.525862 1656.510 40.700
44.544137 1653.766 40.667
44.562413 1657.053 40.707
44.580691 1654.272 40.673
44.598970 1646.386 40.576
44.617250 1650.032 40.621
44.635531 1647.247 40.586
44.653813 1637.020 40.460
44.672097 1642.051 40.522
44.690381 1641.862 40.520
44.708667 1635.666 40.443
44.726954 1627.639 40.344
44.745243 1634.654 40.431
44.763532 1630.970 40.385
44.781823 1632.835 40.408
44.800115 1628.203 40.351
44.818408 1623.799 40.296
44.836702 1632.194 40.400
44.854998 1633.269 40.414
44.873294 1631.669 40.394
44.891592 1619.607 40.244
44.909891 1612.465 40.156
44.928192 1614.483 40.181
44.946493 1611.277 40.141
44.964796 1617.550 40.219
44.983100 1610.676 40.133
45.001405 1614.744 40.184
45.019712 1604.179 40.052
45.038019 1611.901 40.148
45.056328 1605.890 40.074
45.074638 1597.726 39.972
45.092949 1598.429 39.980
45.111262 1597.273 39.966
45.129576 1592.173 39.902
45.147890 1592.212 39.903
45.166207 1591.688 39.896
45.184524 1587.477 39.843
45.202842 1587.427 39.843
45.221162 1581.763 39.771
45.239483 1572.678 39.657
45.257805 1576.827 39.709
45.276129 1576.244 39.702
45.294453 1562.212 39.525
45.312779 1563.277 39.538
45.331106 1564.688 39.556
45.349435 1569.315 39.615
45.367764 1563.316 39.539
45.386095 1558.866 39.482
45.404427 1561.724 39.519
45.422760 1562.147 39.524
45.441095 1561.261 39.513
45.459430 1562.497 39.528
45.477767 1551.156 39.385
45.496106 1549.823 39.368
45.514445 1550.796 39.380
45.532786 1541.498 39.262
45.551127 1544.110 39.295
45.569470 1542.165 39.270
45.587815 1537.403 39.210
45.606160 1543.557 39.288
45.624507 1535.185 39.181
45.642855 1528.894 39.101
45.661204 1525.707 39.060
45.679555 1519.821 38.985
45.697907 1524.286 39.042
45.716259 1528.522 39.096
45.734614 1526.873 39.075
45.752969 1530.242 39.118
45.771326 1523.247 39.029
45.789684 1518.748 38.971
45.808043 1523.275 39.029
45.826403 1515.163 38.925
45.844765 1513.656 38.906
45.863128 1510.043 38.859
45.881492 1500.267 38.733
45.899857 1502.038 38.756
45.918224 1500.248 38.733
45.936592 1491.838 38.624
45.954961 1495.879 38.677
45.973331 1495.842 38.676
45.991703 1488.975 38.587
46.010076 1491.469 38.620
46.028450 1486.652 38.557
46.046825 1491.115 38.615
46.065202 1477.434 38.437
46.083580 1473.981 38.392
46.101959 1468.065 38.315
46.120339 1468.590 38.322
46.138721 1466.113 38.290
46.157104 1473.637 38.388
46.175488 1462.731 38.246
46.193873 1464.884 38.274
46.212260 1459.597 38.205
46.230648 1456.766 38.168
46.249037 1465.194 38.278
46.267428 1458.429 38.189
46.285819 1455.981 38.157
46.304212 1442.738 37.983
46.322607 1452.168 38.107
46.341002 1453.206 38.121
46.359399 1441.743 37.970
46.377797 1447.227 38.042
46.396196 1435.829 37.892
46.414597 1439.782 37.944
46.432999 1439.641 37.943
46.451402 1441.935 37.973
46.469806 1431.825 37.839
46.488212 1420.717 37.692
46.506619 1436.281 37.898
46.525027 1432.047 37.842
46.543436 1432.791 37.852
46.561847 1422.676 37.718
46.580259 1418.955 37.669
46.598672 1417.560 37.651
46.617087 1414.333 37.608
46.635502 1415.519 37.623
46.653920 1416.927 37.642
46.672338 1408.060 37.524
46.690758 1407.643 37.519
46.709178 1405.530 37.490
46.727601 1405.344 37.488
46.746024 1403.738 37.466
46.764449 1409.922 37.549
46.782875 1402.943 37.456
46.801302 1394.580 37.344
46.819731 1398.821 37.401
46.838161 1388.443 37.262
46.856592 1384.585 37.210
46.875024 1382.223 37.178
46.893458 1387.342 37.247
46.911893 1387.943 37.255
46.930329 1385.165 37.218
46.948767 1387.533 37.250
46.967206 1380.614 37.157
46.985646 1374.264 37.071
47.004088 1370.853 37.025
47.022530 1368.441 36.992
47.040974 1365.668 36.955
47.059420 1361.636 36.900
47.077866 1369.343 37.005
47.096314 1364.210 36.935
47.114764 1360.959 36.891
47.133214 1359.083 36.866
47.151666 1358.213 36.854
47.170119 1353.841 36.795
47.188573 1351.581 36.764
47.207029 1349.682 36.738
47.225486 1352.703 36.779
47.243944 1345.688 36.684
47.262404 1346.452 36.694
47.280865 1345.536 36.682
47.299327 1341.086 36.621
47.317791 1337.827 36.576
47.336255 1328.495 36.449
47.354722 1341.987 36.633
47.373189 1335.063 36.539
47.391658 1336.977 36.565
47.410128 1326.713 36.424
47.428599 1328.367 36.447
47.447072 1333.702 36.520
47.465546 1331.065 36.484
47.484021 1320.870 36.344
47.502498 1317.270 36.294
47.520975 1320.016 36.332
47.539455 1313.025 36.236
47.557935 1304.835 36.123
47.576417 1308.731 36.176
47.594900 1307.634 36.161
47.613385 1311.697 36.217
47.631870 1312.295 36.226
47.650357 1304.002 36.111
47.668846 1306.447 36.145
47.687336 1307.772 36.163
47.705827 1304.221 36.114
47.724319 1306.055 36.139
47.742813 1296.149 36.002
47.761308 1297.492 36.021
47.779804 1291.586 35.939
47.798302 1293.232 35.962
47.816801 1289.979 35.916
47.835301 1286.157 35.863
47.853802 1290.504 35.924
47.872305 1279.887 35.776
47.890810 1276.834 35.733
47.909315 1280.491 35.784
47.927822 1276.902 35.734
47.946330 1272.572 35.673
47.964840 1274.662 35.702
47.983351 1265.975 35.581
48.001863 1268.990 35.623
48.020377 1271.600 35.660
48.038892 1264.774 35.564
48.057408 1262.320 35.529
48.075926 1262.714 35.535
48.094444 1269.744 35.633
48.112965 1264.700 35.563
48.131486 1258.355 35.473
48.150009 1254.115 35.413
48.168533 1250.537 35.363
48.187059 1252.138 35.386
48.205586 1252.993 35.398
48.224114 1239.740 35.210
48.242644 1244.109 35.272
48.261175 1241.810 35.239
48.279707 1235.495 35.150
48.298241 1235.212 35.146
48.316776 1238.472 35.192
48.335312 1237.636 35.180
48.353850 1231.654 35.095
48.372389 1230.956 35.085
48.390929 1231.166 35.088
48.409471 1229.935 35.070
48.428014 1224.274 34.990
48.446558 1226.854 35.026
48.465104 1222.908 34.970
48.483651 1227.575 35.037
48.502200 1231.873 35.098
48.520750 1234.443 35.135
48.539301 1231.383 35.091
48.557853 1238.386 35.191
48.576407 1248.703 35.337
48.594962 1242.830 35.254
